# Simple Text Format
# Sampling Rate (Hz):= 250
# Resolution:= 12
# Labels:= ECG
-13900.15
-13914.27
-13904.55
-13903.79
-13926.95
-13927.04
-13922.75
-13933.16
-13927.06
-13940.11
-13956.9
-13950.42
-13975.85
-13990.2
-13996.53
-14007.82
-14024.24
-14029.05
-14041.52
-14057.66
-14065.1
-14063.2
-14072.37
-14084.75
-14084.95
-14074.25
-14077.73
-14056.05
-14045.86
-14056.32
-14037.81
-14024.13
-14011.44
-13993.76
-13962.17
-13956.85
-13945.68
-13934.46
-13934.32
-13923.79
-13906.23
-13890.22
-13893.15
-13890.36
-13882.76
-13887.27
-13881.68
-13863.94
-13876.5
-13885.82
-13881.91
-13884.41
-13898.76
-13894.6
-13878.02
-13889.19
-13904.44
-13896.91
-13893.98
-13885.42
-13895.34
-13894.4
-13902.92
-13905.11
-13881.48
-13882.47
-13898.92
-13908.62
-13901.58
-13893.75
-13898.45
-13904.84
-13898.63
-13888.03
-13899.81
-13903.37
-13904.62
-13889.62
-13881.71
-13895.05
-13894.07
-13880.95
-13876.61
-13887.41
-13884.61
-13890.4
-13890.54
-13898.78
-13903.57
-13900.64
-13902.63
-13901.13
-13892.73
-13889.66
-13895.36
-13896.28
-13899.79
-13881.93
-13874.31
-13866.71
-13862.37
-13891.14
-13891.18
-13890.74
-13892.88
-13900.3
-13884.37
-13883.32
-13883.2
-13883.65
-13880.52
-13889.6
-13895.81
-13900.79
-13888.41
-13870.13
-13881.86
-13872.1
-13882.82
-13881.15
-13864.99
-13883.05
-13892.66
-13885.55
-13893.04
-13901.49
-13896.24
-13894.11
-13891.36
-13898.14
-13898.14
-13882.36
-13889.22
-13895.88
-13901.78
-13902.47
-13897.38
-13884.77
-13900.79
-13890.98
-13870.11
-13884.23
-13895.3
-13892.1
-13900.08
-13902.38
-13904.04
-13891.7
-13890.25
-13897.69
-13901.67
-13899.79
-13904.24
-13908.82
-13932.02
-13958.42
-13968.99
-13937.9
-13922.72
-13930.66
-13947.4
-13946.46
-13938.1
-13931.44
-13925.14
-13909.11
-13914.38
-13921.36
-13909.87
-13905.33
-13896.79
-13894.72
-13886.49
-13879.7
-13880.97
-13888.9
-13884.81
-13872.77
-13877.19
-13873.33
-13879.25
-13904.37
-13896.28
-13909.85
-13948.45
-13985.42
-13968.34
-13905.18
-13923.66
-14100.75
-14362.45
-14626.62
-14747.64
-14607.18
-14288.44
-13979.96
-13799.25
-13711.27
-13718.32
-13764.96
-13846.55
-13904.84
-13907.39
-13910.92
-13918.25
-13925.67
-13917.67
-13909.42
-13915.68
-13914.85
-13920.8
-13919.35
-13917.92
-13913.51
-13923.44
-13935.91
-13921.98
-13930.55
-13930.48
-13927.21
-13924.96
-13931.89
-13932.98
-13930.7
-13946.15
-13961.64
-13953.46
-13926.79
-13930.95
-13944.81
-13936.02
-13949.63
-13968.21
-13970.44
-13969.42
-13977.13
-13968.05
-13962.22
-13975.07
-13973.84
-13966.08
-13956.25
-13985.26
-13990.49
-14004.24
-14014.12
-14016.35
-14011.62
-14017.43
-14036.89
-14036.96
-14053.95
-14072.72
-14082.51
-14094.29
-14108.38
-14100.04
-14109.38
-14127.67
-14137.72
-14144
-14159.27
-14151.92
-14152.5
-14141.68
-14125.83
-14110.7
-14101.71
-14076.66
-14059.34
-14051.56
-14021.94
-14009.38
-14003.95
-13990.31
-13980.21
-13958.71
-13952.88
-13958.53
-13955.47
-13947.09
-13940.65
-13944.18
-13936.89
-13920.6
-13918.61
-13913.92
-13922.9
-13932.54
-13933.5
-13925.94
-13926.28
-13921.56
-13919.75
-13920.17
-13921.81
-13931.17
-13945.12
-13935.55
-13934.52
-13933.45
-13944.07
-13942.44
-13932.29
-13923.66
-13924.04
-13939.46
-13940.02
-13944.16
-13940.31
-13945.5
-13943.69
-13938.14
-13945.74
-13929.18
-13905.56
-13908.24
-13930.19
-13929.56
-13930.63
-13924.89
-13923.48
-13931.86
-13930.37
-13915.99
-13905.2
-13919.33
-13934.32
-13927.86
-13915.77
-13900.97
-13920.91
-13904.95
-13921.94
-13924
-13914.83
-13903.68
-13903.08
-13907.79
-13902.65
-13913.56
-13915.57
-13916.55
-13921.58
-13918.56
-13905.89
-13901.17
-13900.04
-13912.66
-13924.76
-13913.94
-13915.88
-13908.06
-13901.91
-13908.39
-13911.43
-13901.04
-13902.25
-13907.43
-13927.26
-13932.09
-13916.67
-13901.06
-13903.77
-13913
-13921.47
-13916.73
-13909.2
-13908.64
-13900.08
-13905.62
-13919.86
-13918.18
-13919.53
-13914.68
-13909.31
-13915.21
-13912.04
-13899.86
-13912.42
-13926.23
-13931.01
-13922.43
-13912.08
-13911.77
-13911.5
-13907.01
-13909.69
-13918.36
-13925.7
-13910.99
-13914.99
-13916.35
-13909.92
-13903.99
-13907.61
-13915.77
-13932.31
-13922.7
-13896.06
-13905.53
-13915.01
-13908.06
-13899.52
-13924.02
-13926.83
-13920.31
-13915.68
-13916.96
-13907.55
-13908.35
-13922.21
-13923.39
-13905.27
-13911.84
-13918.59
-13916.69
-13917.18
-13912.62
-13908.57
-13915.06
-13921.14
-13918.34
-13922.25
-13923.26
-13920.24
-13923.97
-13929.05
-13930.1
-13932.22
-13947.22
-13963.33
-13974.11
-13972.48
-13962.84
-13964.9
-13957.26
-13962.6
-13971.72
-13961.55
-13944.87
-13932.65
-13934.3
-13933.9
-13933.79
-13937.21
-13932.15
-13926.57
-13920.75
-13927.51
-13923.77
-13909.8
-13894.34
-13906.83
-13920.71
-13918.74
-13910.03
-13905.44
-13910.92
-13920.71
-13927.97
-13952.45
-14022.48
-14033.14
-13974.89
-13943.71
-14066.04
-14316.58
-14579.46
-14715.63
-14590.21
-14264.75
-13904.44
-13702.49
-13690.89
-13735.12
-13819.77
-13904.17
-13922.36
-13918.48
-13919.15
-13926.41
-13936.4
-13919.68
-13920.6
-13943.11
-13935.84
-13918.63
-13936.8
-13943.29
-13939.31
-13935.15
-13937.9
-13945.5
-13943.69
-13934.61
-13934.66
-13939.8
-13935.91
-13957.3
-13967.02
-13957.05
-13955.33
-13953.66
-13957.77
-13964.72
-13956.09
-13960.76
-13960.47
-13985.98
-13998.41
-13980.84
-13967.34
-13985.06
-13984.21
-13979.58
-13969.1
-13990.78
-13994.11
-13994.11
-13998.9
-14010.05
-14019.44
-14017.61
-14030.55
-14040.94
-14039.33
-14060.25
-14064.16
-14076.21
-14101.2
-14103.32
-14121.99
-14136.11
-14144.79
-14150.71
-14148.92
-14163.56
-14171.25
-14184.28
-14187.23
-14183.46
-14164.57
-14151.54
-14142.64
-14114.92
-14101.76
-14088.97
-14065.46
-14034.97
-14023.44
-14012.89
-14012.24
-13999.01
-13977.01
-13981.17
-13984.52
-13974.38
-13952.43
-13955.4
-13959.33
-13957.48
-13948.05
-13937.18
-13932.31
-13925.52
-13937.12
-13962.42
-13960
-13951.2
-13946.53
-13947.2
-13943.11
-13940.54
-13936.18
-13934.52
-13934.81
-13951.13
-13940.56
-13941.27
-13945.52
-13954.98
-13943.71
-13955.07
-13962.4
-13962.04
-13945.05
-13957.52
-13971.32
-13954.55
-13942.68
-13950.51
-13958.42
-13952.99
-13960.38
-13958.91
-13946.71
-13947.98
-13947.89
-13938.59
-13946.26
-13941.21
-13946.06
-13929.2
-13936.67
-13939.42
-13958.46
-13964.34
-13946.39
-13959.16
-13958.42
-13958.04
-13947.91
-13944.16
-13940.2
-13940.8
-13941.27
-13936.09
-13956.7
-13964.07
-13965.21
-13952.96
-13957.19
-13956.23
-13936.22
-13946.01
-13948.18
-13951.06
-13947.87
-13946.04
-13952.96
-13959.42
-13946.86
-13942.44
-13954.17
-13965.68
-13963.8
-13959.49
-13955.47
-13958.08
-13962.17
-13940.98
-13941.7
-13955.56
-13960.07
-13957.86
-13955.36
-13943.4
-13957.5
-13955.89
-13955.89
-13959.58
-13973.15
-13966.08
-13960.38
-13958.73
-13954.89
-13958.84
-13949.43
-13961.1
-13964.52
-13948.58
-13941.72
-13944.16
-13964.16
-13965.19
-13970.76
-13968.03
-13963.02
-13967.58
-13974.98
-13984.48
-13967.47
-13959.02
-13966.17
-13972.48
-13970.93
-13972.14
-13961.88
-13956.18
-13963.04
-13971.14
-13964.88
-13961.82
-13968.25
-13967.36
-13968.36
-13966.73
-13971.43
-13976.1
-13959.56
-13969.79
-13993.2
-13981.91
-13977.13
-13976.01
-13974.71
-13975.9
-13965.5
-13979.03
-13988.12
-13982.27
-13982.89
-13984.23
-13974.06
-13967.56
-13979.61
-13983.83
-13976.41
-13968.88
-13984.37
-13991.54
-13989.67
-13992.12
-13987.45
-13980.66
-13977.24
-13977.8
-13987.14
-13984.23
-13986.74
-14004.04
-14002.63
-13984.77
-13979.25
-13981.95
-13998.23
-14004.46
-13994.67
-13986.89
-13985.06
-14001.45
-14002.96
-13983.85
-13988.86
-13999.43
-13997.04
-13998.18
-13995.1
-13987.74
-14005.63
-14007.37
-14013.34
-14008.49
-13996.42
-13991.9
-14010.54
-14010.56
-14005.65
-14006.94
-14008.26
-14016.42
-14005.13
-13992.06
-14014.3
-14021.07
-14014.92
-14013.96
-14023.19
-14045.59
-14062.24
-14069.17
-14070.13
-14051.42
-14050.28
-14065.55
-14068.08
-14068.66
-14069.66
-14050.24
-14032.45
-14036.63
-14044.76
-14039.82
-14024.78
-14038.71
-14022.34
-14003.5
-14015.64
-14031.69
-14031.93
-14022.41
-14012.84
-14013.43
-14027.87
-14035.2
-14020.47
-14026.17
-14030.61
-14057.82
-14099.68
-14110.5
-14055.89
-14035.89
-14162.02
-14389.38
-14671.37
-14859.66
-14811.18
-14542.6
-14218.91
-13972.16
-13860.52
-13852.9
-13885.26
-13962.46
-14022.5
-14048.18
-14055.38
-14050.26
-14044.36
-14056.16
-14061.01
-14063.92
-14054.58
-14047.11
-14065.17
-14071.47
-14082.13
-14070.11
-14073.26
-14068.79
-14066.73
-14078
-14079.16
-14080.55
-14085.62
-14086.78
-14072.84
-14073.24
-14088.95
-14096.51
-14096.33
-14084.86
-14091.37
-14092.46
-14109.18
-14104.38
-14102.68
-14118.81
-14118.34
-14114.25
-14108.38
-14108.96
-14124.45
-14123.71
-14133.5
-14143.78
-14152.23
-14144.12
-14151.04
-14157.68
-14168.64
-14171.12
-14168.37
-14196.06
-14210.52
-14217.61
-14233.68
-14244.36
-14250.76
-14261.13
-14266.94
-14288.55
-14302.21
-14300.76
-14311.29
-14326.1
-14333.75
-14326.31
-14332.16
-14324.32
-14306.48
-14285.16
-14267.36
-14259.27
-14247.38
-14237.88
-14219.49
-14206.48
-14182.7
-14160.83
-14157.48
-14152.88
-14139.4
-14123.46
-14118.84
-14114.77
-14109.61
-14114.92
-14132.63
-14123.6
-14118.3
-14121.61
-14117.29
-14107.08
-14110.59
-14117.12
-14121
-14120.76
-14104.53
-14095.72
-14113.58
-14121.23
-14121.74
-14120.78
-14122.21
-14120.02
-14118.59
-14124.11
-14129.03
-14131.8
-14118.86
-14132.05
-14141.7
-14138.75
-14133.95
-14119.22
-14140.34
-14134.48
-14121.38
-14121.07
-14121.92
-14122.77
-14114.81
-14126.46
-14119.48
-14109.07
-14115.08
-14106.19
-14106.23
-14120.74
-14123.98
-14118.72
-14116.62
-14132.99
-14106.21
-14097.47
-14113.76
-14117.99
-14118.95
-14119.26
-14114.84
-14120.42
-14111.3
-14112.26
-14104.15
-14110.57
-14111.53
-14115.15
-14115.15
-14103.41
-14090.7
-14115.75
-14116.45
-14116.11
-14122.37
-14110.34
-14111.19
-14117.63
-14111.15
-14111.19
-14097.63
-14102.79
-14120.67
-14114.92
-14113.92
-14129.19
-14124.89
-14118.17
-14109.14
-14103.1
-14109.07
-14112.58
-14106.52
-14119.51
-14123.75
-14123.11
-14124.71
-14119.13
-14099.7
-14108.78
-14124.78
-14124.71
-14120.38
-14120.65
-14118.5
-14126.28
-14126.01
-14124.25
-14123.11
-14111.08
-14110.77
-14104.06
-14122.66
-14119.02
-14110.79
-14121.81
-14133.28
-14120.04
-14106.01
-14115.08
-14119.73
-14116.83
-14117.36
-14118.12
-14127.29
-14120.94
-14101.92
-14104.38
-14114.66
-14117.47
-14117.05
-14111.86
-14118.12
-14116.4
-14104.64
-14111.73
-14120.71
-14130.3
-14127.91
-14115.95
-14110.59
-14115.95
-14115.3
-14111.75
-14113.43
-14115.37
-14120.31
-14124.54
-14131.31
-14131.35
-14130.75
-14116.49
-14114.46
-14115.04
-14129.86
-14124.83
-14126.55
-14130.26
-14141.1
-14138.89
-14144.54
-14148.99
-14172.82
-14185.06
-14188.71
-14187.12
-14176.77
-14170.16
-14173.06
-14188.08
-14180.33
-14159.41
-14149.03
-14157.77
-14157.28
-14145.79
-14128.13
-14152.19
-14150.93
-14142.42
-14138.51
-14133.14
-14123.26
-14107.82
-14110.59
-14119.66
-14110.95
-14140.63
-14144.81
-14135.06
-14129.79
-14153.57
-14190.5
-14216.8
-14173.38
-14123.96
-14189.13
-14391.89
-14647.9
-14896.92
-14952.69
-14711.11
-14357.13
-14083.59
-13936.22
-13926.52
-13994.02
-14064.28
-14130.1
-14147.58
-14153.73
-14161.53
-14153.04
-14148.27
-14143.18
-14138.62
-14149.01
-14157.53
-14143.04
-14151.87
-14154.51
-14149.24
-14160.28
-14159.03
-14158.02
-14176.88
-14173.58
-14178.85
-14182.14
-14179.7
-14175.57
-14171.23
-14166
-14175.27
-14183.54
-14178.4
-14178.76
-14182.47
-14182.7
-14182.36
-14188.46
-14190.67
-14205.67
-14202.21
-14206.17
-14218.48
-14225.25
-14217.92
-14204.31
-14221.16
-14219.15
-14219.53
-14231.18
-14248.1
-14247.94
-14247.38
-14263.41
-14271.86
-14280.62
-14289.76
-14300.89
-14324.05
-14339.22
-14332.63
-14346.38
-14370.07
-14392.8
-14399.73
-14406.06
-14411.26
-14403.29
-14387.64
-14392.22
-14390.66
-14373.18
-14351.03
-14316.94
-14303.71
-14291.15
-14281.18
-14269.51
-14266.83
-14239.67
-14223.71
-14217.09
-14187.77
-14193.25
-14187.48
-14189.38
-14183.95
-14166.92
-14166.4
-14158.47
-14148.83
-14157.57
-14167.41
-14168.17
-14164.28
-14154.55
-14152.25
-14162.65
-14163.61
-14156.05
-14150.06
-14151.92
-14151.49
-14162.89
-14162.78
-14163.56
-14159.36
-14160.12
-14161.06
-14171.92
-14163.56
-14157.84
-14167.5
-14159.25
-14158.02
-14151.72
-14151.2
-14169.87
-14155.45
-14163.09
-14157.97
-14159.99
-14170.71
-14171.7
-14148.81
-14157.46
-14171.12
-14163.88
-14152.5
-14156.52
-14162.58
-14147.85
-14147.74
-14142.44
-14151.56
-14146.24
-14146.55
-14155.87
-14153.79
-14143.83
-14135.71
-14146.31
-14148.68
-14142.71
-14149.08
-14157.42
-14153.08
-14144.34
-14146.46
-14147.29
-14154.04
-14155.02
-14139.91
-14124.09
-14143.83
-14157.3
-14146.46
-14147.11
-14154.4
-14154
-14157.42
-14140.72
-14132.4
-14135.11
-14135.29
-14137.68
-14121.7
-14143.58
-14153.26
-14143.78
-14145.68
-14155.34
-14146.37
-14143.02
-14149.59
-14134.59
-14145.48
-14150.2
-14139.47
-14133.83
-14145.66
-14156.63
-14140.14
-14146.24
-14141.77
-14129.95
-14133.32
-14156.14
-14147.58
-14132.76
-14139.38
-14142.98
-14145.57
-14142.26
-14149.97
-14152.32
-14153.53
-14144.72
-14126.79
-14132.61
-14145.48
-14151.94
-14150.46
-14155.45
-14147.63
-14142.37
-14150.89
-14150.51
-14149.53
-14134.21
-14136.87
-14157.68
-14152.97
-14148.79
-14159.29
-14151.98
-14135.38
-14142.86
-14148.81
-14150.75
-14140.36
-14142.26
-14141.97
-14153.01
-14156.12
-14163.27
-14157.62
-14136.45
-14139.89
-14158.09
-14163.23
-14155.05
-14152.77
-14164.75
-14176.73
-14165.22
-14158.96
-14159.03
-14155.52
-14154.87
-14152.39
-14164.23
-14160.5
-14143.83
-14157.97
-14143.83
-14143.56
-14165.31
-14164.03
-14170.47
-14174.74
-14169.87
-14174.72
-14185.89
-14208.87
-14216.69
-14220.83
-14208.71
-14207.53
-14220.22
-14217.54
-14211.71
-14201.47
-14204.98
-14184.71
-14153.21
-14156.45
-14181.73
-14189.96
-14176.73
-14162.44
-14168.37
-14171.23
-14167.03
-14161.33
-14151.49
-14144.23
-14153.71
-14157.84
-14160.1
-14150.06
-14153.55
-14153.15
-14191.43
-14255.36
-14268.41
-14207.48
-14155.05
-14224.02
-14421.37
-14668.91
-14884.41
-14894.4
-14657.2
-14293.05
-14009.6
-13914.65
-13957.64
-14008.42
-14087.99
-14183.21
-14197.96
-14183.61
-14174.56
-14164.66
-14168.12
-14168.73
-14167.52
-14180.26
-14180.88
-14187.43
-14190.9
-14186.72
-14181.49
-14192.71
-14180.19
-14185.47
-14177.71
-14182.32
-14195.59
-14204.98
-14219.89
-14206.52
-14189.27
-14206.12
-14210.59
-14207.26
-14209.38
-14224.29
-14223.17
-14218.3
-14214.95
-14219.33
-14227.76
-14216.31
-14235.18
-14235.49
-14233.9
-14236.41
-14250.85
-14241.08
-14225.03
-14256.86
-14253.28
-14267.52
-14275.7
-14277.96
-14291.28
-14306.21
-14311.35
-14315.24
-14318.01
-14337.15
-14340.74
-14354.69
-14385.29
-14399.22
-14388.02
-14397.12
-14425.06
-14427.89
-14426.96
-14423.71
-14437.71
-14443.52
-14430.84
-14401.65
-14392.47
-14380.93
-14370.32
-14338.84
-14327.78
-14309.07
-14291.62
-14270.38
-14258.74
-14244.34
-14227.4
-14247.34
-14238.4
-14224.43
-14219.6
-14214.93
-14219.96
-14198.77
-14210.17
-14224.92
-14212.78
-14219.78
-14200.04
-14203.66
-14218.77
-14217.47
-14208.42
-14203.17
-14214.84
-14223.91
-14224.54
-14214.61
-14205.96
-14211.1
-14224.69
-14214.23
-14213.18
-14228.14
-14238.42
-14233.5
-14214.57
-14224.18
-14219.58
-14205.74
-14217.36
-14219.69
-14221.5
-14230.21
-14224.38
-14224.45
-14212.85
-14217.83
-14219.75
-14213.34
-14225.01
-14231.15
-14223.02
-14212.16
-14203.21
-14212.38
-14208.24
-14210.84
-14222.12
-14234.98
-14227.15
-14208.91
-14207.71
-14201.65
-14217.81
-14221.5
-14214.79
-14230.24
-14223.53
-14218.61
-14219.44
-14207.44
-14218.7
-14233.37
-14210.7
-14201.2
-14214.19
-14212.76
-14206.54
-14214.64
-14235.47
-14229.75
-14212.62
-14219.53
-14225.79
-14221.25
-14210.19
-14210.81
-14234.4
-14244.74
-14225.7
-14219.17
-14224.58
-14237.97
-14230.21
-14221.83
-14224.38
-14216.22
-14220.31
-14226.37
-14232.05
-14233.32
-14229.14
-14216.31
-14227.98
-14230.73
-14211.15
-14213.72
-14239.78
-14231.06
-14232.5
-14237.32
-14235.47
-14234.86
-14232.52
-14223.13
-14229.92
-14239.09
-14231.85
-14220.38
-14213.59
-14230.06
-14233.88
-14220.98
-14222.68
-14238.4
-14241.86
-14225.7
-14230.17
-14228.7
-14227.35
-14235.13
-14232.23
-14228.07
-14241.53
-14237.21
-14220.02
-14227.91
-14238.04
-14233.08
-14225.37
-14234.57
-14245.3
-14262.04
-14266.58
-14278.65
-14284.73
-14293.94
-14293.65
-14271.43
-14272.35
-14285.09
-14298.39
-14296.49
-14279.79
-14258.02
-14238.17
-14234.89
-14254.36
-14266.36
-14267.25
-14250.29
-14230.24
-14230.51
-14231.22
-14230.57
-14217.03
-14215.71
-14230.39
-14225.81
-14219.8
-14218.39
-14228.61
-14228.92
-14251.16
-14278.79
-14321.97
-14271.61
-14224.92
-14306.32
-14518.08
-14748.02
-14973.86
-15025.07
-14837.87
-14567.23
-14328
-14149.97
-14076.82
-14068.84
-14111.59
-14172.5
-14218.73
-14242.64
-14251.96
-14253.53
-14251.34
-14253.75
-14250.6
-14252.86
-14249.04
-14245.59
-14260.99
-14261.55
-14267.68
-14263.14
-14264.08
-14272.53
-14264.37
-14267.86
-14275.03
-14273.62
-14256.39
-14262.71
-14267.52
-14271.19
-14287.37
-14290.23
-14272.19
-14253.3
-14272.64
-14285.02
-14291.46
-14296.35
-14283.79
-14300.78
-14304.87
-14290.16
-14299.53
-14293.81
-14287.39
-14290.18
-14321.77
-14316.05
-14318.91
-14317.07
-14320.38
-14329.93
-14343.2
-14356.48
-14361.38
-14377.83
-14382.92
-14402.23
-14403.17
-14402.46
-14409.74
-14410.39
-14436.1
-14449.13
-14465.76
-14460.04
-14469
-14476.75
-14470.43
-14471.55
-14481.23
-14462.27
-14443.85
-14429.3
-14411.96
-14389.65
-14373.33
-14364.62
-14341.04
-14324.36
-14318.46
-14305.43
-14290.05
-14276.48
-14286.7
-14282.9
-14263.12
-14267.59
-14276.64
-14271.01
-14274.43
-14273.4
-14265.69
-14274.85
-14274.72
-14264.68
-14267.77
-14270.65
-14264.79
-14277.42
-14277.06
-14269.31
-14253.64
-14261.13
-14270.85
-14272.35
-14279.19
-14281.85
-14259.97
-14255.2
-14266.25
-14284.78
-14282.74
-14267.81
-14263.36
-14273.11
-14270.18
-14277.98
-14269.44
-14269.4
-14264.44
-14259.21
-14265.73
-14274.85
-14265.49
-14263.05
-14256.3
-14264.77
-14257.69
-14244.5
-14252.08
-14259.72
-14260.9
-14264.41
-14271.66
-14271.39
-14260.01
-14253.19
-14260.17
-14260.12
-14248.48
-14254.96
-14265.2
-14259.76
-14268.5
-14252.46
-14268.1
-14251.47
-14250.76
-14260.17
-14243.22
-14255.03
-14264.64
-14257.1
-14247.45
-14247.81
-14267.59
-14269.6
-14262.49
-14264.01
-14262.11
-14255.32
-14261.13
-14241.86
-14252.72
-14245.24
-14264.5
-14274.09
-14249.73
-14256.23
-14262.96
-14257.19
-14260.61
-14270.11
-14265.46
-14258.49
-14259.97
-14265.78
-14276.39
-14281.33
-14268.59
-14266.04
-14288.17
-14315.89
-14313.3
-14312.18
-14307.22
-14300.31
-14308
-14317.32
-14326.77
-14321.63
-14296.76
-14292.96
-14300
-14286.7
-14276.39
-14278.23
-14292.58
-14286.16
-14282.29
-14270.11
-14267.63
-14268.46
-14265.64
-14248.32
-14236.92
-14254.4
-14252.23
-14251.27
-14257.24
-14262.65
-14274.65
-14290.01
-14322.64
-14332.99
-14291.28
-14286.3
-14417.19
-14641.04
-14883.98
-15069.72
-15035.44
-14782.79
-14508.65
-14290.77
-14130.64
-14091.59
-14102.63
-14163.96
-14250.47
-14281.89
-14278.63
-14280.71
-14275.14
-14266.8
-14277.06
-14278.81
-14268.71
-14260.32
-14274.7
-14291.48
-14297.16
-14277.04
-14279.57
-14277.04
-14276.06
-14284.89
-14282.32
-14276.48
-14288.62
-14295.08
-14292.2
-14292.76
-14286.43
-14290.05
-14299.26
-14299.46
-14296.76
-14298.46
-14287.84
-14291.5
-14302.63
-14306.55
-14317.52
-14314.73
-14318.01
-14309.9
-14299.21
-14308.11
-14320.92
-14315.15
-14326.46
-14332.92
-14345.26
-14340.48
-14355.43
-14367.86
-14374.16
-14391.42
-14394.17
-14400.42
-14410.48
-14424.9
-14429.66
-14449.29
-14472.84
-14478.77
-14482.3
-14485.85
-14490.03
-14506.57
-14499.64
-14495.55
-14479.82
-14473.63
-14455.88
-14435.16
-14425.06
-14403.29
-14392.06
-14381.49
-14372.37
-14361.93
-14346.02
-14329.41
-14321.03
-14318.44
-14331.71
-14320.83
-14306.75
-14303.35
-14304.94
-14295.35
-14294.39
-14300.38
-14295.39
-14293.54
-14293.54
-14305.67
-14306.39
-14287.06
-14287.15
-14296.31
-14304.83
-14291.68
-14294.9
-14302.99
-14297.07
-14290.16
-14298.34
-14305.32
-14307.75
-14314.66
-14303.08
-14290.65
-14297.56
-14296.49
-14295.44
-14304.09
-14302.75
-14305.61
-14298.25
-14284.64
-14295.66
-14303.19
-14306.39
-14292.76
-14294.59
-14303.42
-14287.28
-14275.92
-14285.85
-14290.43
-14275.5
-14270.38
-14276.46
-14288.44
-14288.35
-14291.28
-14291.24
-14293.05
-14285.2
-14279.9
-14274.58
-14287.86
-14296.06
-14297.63
-14300.02
-14290.79
-14291.5
-14281
-14277.6
-14293.81
-14301.34
-14292.13
-14290.05
-14296.35
-14302.08
-14305.83
-14301.83
-14284.71
-14299.35
-14299.53
-14303.53
-14308.89
-14302.57
-14298.52
-14291.15
-14297.27
-14304.47
-14307.96
-14297.78
-14303.51
-14312.96
-14314.97
-14306.37
-14291.28
-14301.9
-14309.56
-14308.76
-14300.49
-14306.95
-14298.72
-14301.14
-14311.62
-14307.82
-14309.88
-14319.69
-14313.5
-14315.24
-14315.55
-14310.84
-14310.35
-14309.43
-14309.74
-14327.67
-14323.71
-14308.74
-14309.41
-14337.95
-14331.96
-14326.1
-14329.7
-14356.06
-14378.47
-14381.83
-14382.94
-14373
-14367.61
-14369.91
-14378.43
-14378.79
-14365.93
-14352.84
-14333.7
-14326.17
-14328.61
-14342.98
-14353.08
-14334.93
-14327.45
-14328.56
-14336.59
-14333.17
-14330.84
-14320.85
-14317.03
-14330.42
-14337.35
-14339.18
-14333.44
-14328.63
-14335.47
-14364.75
-14400.76
-14459.66
-14442.87
-14375.46
-14385.63
-14558.27
-14820.32
-15071.13
-15136.49
-14935.99
-14576.11
-14255.65
-14127.06
-14136.03
-14182.74
-14262.92
-14329.84
-14360.62
-14371.25
-14359.97
-14373.04
-14375.34
-14372.48
-14367.03
-14372.44
-14372.1
-14367.97
-14370.88
-14377.92
-14378.97
-14379.46
-14393.56
-14385.29
-14375.48
-14378.14
-14367.23
-14385.31
-14405.05
-14402.84
-14410.26
-14400.87
-14406.28
-14400.76
-14406.86
-14403.15
-14423.78
-14431.83
-14431.47
-14433.84
-14429.7
-14411.22
-14420.34
-14427.11
-14446.69
-14446.29
-14443.67
-14452.19
-14460.68
-14473.69
-14470.68
-14469.54
-14474.36
-14504.36
-14495.13
-14505.3
-14518.6
-14533.24
-14540.01
-14547.48
-14569.34
-14577.96
-14582.59
-14601.25
-14614.44
-14634.02
-14631.94
-14631.36
-14634.4
-14644.15
-14640.41
-14633.15
-14632.48
-14626.47
-14594.68
-14576.11
-14561.16
-14535.56
-14532.41
-14511.47
-14504.07
-14499.35
-14487.53
-14468.44
-14461.62
-14447.99
-14450.47
-14458.23
-14437.3
-14437.24
-14442.89
-14443.18
-14436.7
-14448.48
-14428.88
-14433.39
-14445.22
-14432.74
-14434.62
-14446.18
-14458.05
-14462.79
-14451.7
-14450.54
-14450.78
-14455.36
-14449.75
-14455.61
-14452.79
-14453.29
-14447.97
-14435.4
-14453.44
-14467.34
-14458.4
-14453.67
-14439.2
-14451.16
-14454.02
-14471.95
-14478.79
-14467.88
-14450.47
-14458.78
-14451.7
-14440.25
-14438.69
-14438.49
-14453.06
-14451.97
-14452.1
-14464.06
-14458.87
-14451.32
-14453.71
-14442.04
-14452.95
-14463.54
-14459.54
-14456.59
-14459.43
-14459.46
-14451.54
-14451.01
-14451.61
-14451.14
-14456.3
-14466.09
-14460.55
-14446.67
-14448.97
-14461.29
-14462.11
-14458.54
-14441.71
-14441.82
-14461.98
-14463.66
-14454
-14458.09
-14463.79
-14457.98
-14449.71
-14443.16
-14444.08
-14448.1
-14455.36
-14459.28
-14467.7
-14479.62
-14464.73
-14450.47
-14452.21
-14461
-14462.29
-14452.91
-14454.85
-14452.77
-14455.68
-14453.91
-14458.99
-14458.18
-14466.09
-14468.04
-14458.72
-14451.12
-14449.2
-14454.96
-14467.93
-14467.19
-14463.23
-14466.61
-14465.07
-14462.9
-14464.08
-14466.07
-14466.03
-14473.96
-14474.01
-14472.78
-14462.43
-14473.78
-14474.63
-14466.92
-14463.99
-14472.58
-14462.83
-14470.52
-14472.24
-14472.4
-14477.38
-14469.22
-14475.57
-14467.72
-14466.65
-14471.84
-14458.36
-14454.34
-14477.27
-14474.36
-14472.44
-14465.09
-14465.31
-14466.54
-14477.2
-14468.06
-14476.2
-14480.35
-14472.55
-14479.39
-14473
-14467.5
-14466.58
-14469.13
-14480.89
-14477.81
-14478.81
-14484.98
-14480.58
-14472.8
-14474.97
-14471.68
-14481.78
-14480.42
-14473.78
-14472.73
-14469.47
-14485.2
-14510.55
-14505.77
-14485.29
-14488.58
-14492.51
-14488.65
-14487.46
-14479.62
-14486.59
-14498.59
-14485.49
-14477.69
-14484.8
-14487.44
-14483.24
-14480.96
-14474.34
-14494.7
-14505.99
-14488.91
-14491.28
-14488.42
-14485.2
-14483.13
-14475.91
-14490.05
-14476.42
-14492.16
-14491.44
-14500.13
-14502.44
-14489.21
-14504.9
-14529.84
-14539.61
-14568.67
-14565.8
-14562.41
-14554.49
-14548.3
-14554.05
-14554.61
-14550.81
-14556.15
-14538.45
-14517.66
-14528.63
-14536.84
-14536.5
-14534.13
-14522.91
-14509.21
-14488.22
-14474.99
-14495.82
-14509.57
-14506.39
-14495.2
-14490.59
-14497.07
-14496.87
-14496.56
-14508.58
-14521.64
-14563.77
-14602.64
-14597.28
-14524.7
-14516.18
-14666.63
-14897.66
-15123.5
-15224.78
-15057.12
-14727.88
-14417.17
-14246.44
-14245.71
-14324.07
-14435.45
-14512.45
-14513.34
-14512.96
-14507.6
-14502.46
-14509.43
-14520.5
-14538.74
-14528.34
-14515.94
-14518.17
-14522.89
-14531.96
-14538.89
-14535.54
-14540.1
-14547.65
-14538.18
-14530.94
-14537.55
-14547.45
-14545.49
-14548.57
-14562.25
-14556.66
-14554.43
-14544.75
-14552.26
-14568.46
-14564.89
-14559.19
-14568.4
-14570.7
-14566.39
-14575.33
-14570.48
-14578.83
-14586.23
-14580.4
-14582.88
-14590.46
-14582.48
-14606.75
-14605.1
-14604.43
-14611.69
-14624.48
-14630.24
-14652.89
-14654.63
-14659.08
-14668.38
-14686.44
-14701.9
-14704.25
-14705.93
-14717.68
-14716.5
-14749.74
-14778.21
-14766.17
-14768.71
-14795.33
-14802.2
-14812.52
-14796.65
-14787.27
-14785.9
-14766.34
-14748.55
-14715.02
-14697.34
-14683.02
-14672.96
-14655.79
-14647.86
-14633.17
-14621.35
-14617.79
-14618.51
-14606.89
-14601.99
-14599.06
-14603.78
-14592.29
-14591.91
-14595.02
-14586.77
-14587.06
-14574.43
-14587.71
-14588.36
-14584.62
-14578.7
-14586.66
-14590.35
-14598.59
-14593.19
-14586.86
-14573.69
-14582.88
-14587.89
-14580.2
-14600.87
-14614.96
-14609.19
-14579.28
-14591.87
-14598.62
-14624.23
-14620.68
-14614.73
-14621.84
-14630.2
-14618.78
-14619.34
-14635.03
-14622.8
-14614.04
-14619.07
-14623.54
-14627.79
-14605.34
-14596.07
-14604.67
-14616.01
-14612.88
-14608.45
-14623.38
-14638.16
-14619.07
-14615.8
-14605.59
-14615.49
-14625.53
-14609.14
-14618
-14611.54
-14595.76
-14610.44
-14604.29
-14604.81
-14616.97
-14629.13
-14617.35
-14611.13
-14603.94
-14603.6
-14611.98
-14612.59
-14605.84
-14607.8
-14622.87
-14632.26
-14613.1
-14611.74
-14600.18
-14602.98
-14622.11
-14629.71
-14631.36
-14626.89
-14650.9
-14650.16
-14635.45
-14627.7
-14633.24
-14642.65
-14624.05
-14621.46
-14637.98
-14636.21
-14645.04
-14649.06
-14640.5
-14641.89
-14635.68
-14627.56
-14637.29
-14646.45
-14646.47
-14633.93
-14649.67
-14648.19
-14641.8
-14653.49
-14641.55
-14636.79
-14640.08
-14627.83
-14615.56
-14630.11
-14651.14
-14653.47
-14640.17
-14640.24
-14628.12
-14628.93
-14641.2
-14646.65
-14655.12
-14660.67
-14655.03
-14653.92
-14647.39
-14648.86
-14643.34
-14641.67
-14661.67
-14663.66
-14650.85
-14641.71
-14660.75
-14655.66
-14644.06
-14650.96
-14659.82
-14660.2
-14667.44
-14648.04
-14658.5
-14680.71
-14669.14
-14656.96
-14659.01
-14665.18
-14656.84
-14657.42
-14670.5
-14665.92
-14663.41
-14649.09
-14645.73
-14663.21
-14664.13
-14673.38
-14697.46
-14703.09
-14725.26
-14737.24
-14720.55
-14721.84
-14721.22
-14723.9
-14689.32
-14693.79
-14708.59
-14696.76
-14693.23
-14688.6
-14681.54
-14681.25
-14668.09
-14665.02
-14680.47
-14672.31
-14659.59
-14645.44
-14660.91
-14663.84
-14657.42
-14655.79
-14665.9
-14680.33
-14663.28
-14692.87
-14762.43
-14767.48
-14697.57
-14686.15
-14832.55
-15050.9
-15288.86
-15458.96
-15401.85
-15149.94
-14864.6
-14669.4
-14526.76
-14487.82
-14516.79
-14590.93
-14656.75
-14678.59
-14674.39
-14681.65
-14679.73
-14683.91
-14674.81
-14672.96
-14683.4
-14687.35
-14679.49
-14681.18
-14683.2
-14689.5
-14700.56
-14693.21
-14684.96
-14694.48
-14701.84
-14705.23
-14698.48
-14710.93
-14708.48
-14701.77
-14694.68
-14695.8
-14716.43
-14729.15
-14721.06
-14725.55
-14731.39
-14726.11
-14726.27
-14729.04
-14741.96
-14748.82
-14750.34
-14739.39
-14748.28
-14754.18
-14744.84
-14743.12
-14757.9
-14747.48
-14763.91
-14766.57
-14766.66
-14775.08
-14779.62
-14783.71
-14806.47
-14816.21
-14824.53
-14822.42
-14838.74
-14846.63
-14864.74
-14871.75
-14885.61
-14888.32
-14884.41
-14898.17
-14890.71
-14875.89
-14895.51
-14893.12
-14861.27
-14845.45
-14829.6
-14819.12
-14810.62
-14788.81
-14776.33
-14762.68
-14753.25
-14746.92
-14721.66
-14715.58
-14703.69
-14696.29
-14706.64
-14706.55
-14698.33
-14690.71
-14681.09
-14691.96
-14701.19
-14694.08
-14691.06
-14688.87
-14693.37
-14686.71
-14690.06
-14691.91
-14697.48
-14691.15
-14677.7
-14680.27
-14693.01
-14695.98
-14693.1
-14687.49
-14694.17
-14679.19
-14674.43
-14684.89
-14685.68
-14685.05
-14681.07
-14680.31
-14696.03
-14687.11
-14680.42
-14677.88
-14679.93
-14670.5
-14664.82
-14672.67
-14682.21
-14681.45
-14671.73
-14674.34
-14664.51
-14662.18
-14651.63
-14652.31
-14667.08
-14668.24
-14650.81
-14642.16
-14664.84
-14659.55
-14652.66
-14643.79
-14659.64
-14656.64
-14667.21
-14660.15
-14664.53
-14674.52
-14667.3
-14664.93
-14652.73
-14650.43
-14654.97
-14650.2
-14644.86
-14647.34
-14666.45
-14660.38
-14656.84
-14657.31
-14653.62
-14644.06
-14645.85
-14665.56
-14664.89
-14657.56
-14644.53
-14646.56
-14643.68
-14640.82
-14655.05
-14665.74
-14654.07
-14647.19
-14654.65
-14650.27
-14643.5
-14636.66
-14642.94
-14639.36
-14635.07
-14640.33
-14634.47
-14638.04
-14659.37
-14652.28
-14640.84
-14642.29
-14642.05
-14634.74
-14634.74
-14627.9
-14632.19
-14652.51
-14661.83
-14641.38
-14644.28
-14654.07
-14643.05
-14637.24
-14632.48
-14642.2
-14652.84
-14651.37
-14642.22
-14646.67
-14646.9
-14645.98
-14642.9
-14683.71
-14705.19
-14693.08
-14697.66
-14698.51
-14701.66
-14693.19
-14692.99
-14692.49
-14683.6
-14679.71
-14653.78
-14657.85
-14660.62
-14645.51
-14642.43
-14646.29
-14632.43
-14618.89
-14640.77
-14631.09
-14628.37
-14624.12
-14611.13
-14611.2
-14619.52
-14619.58
-14604.07
-14627.14
-14664.51
-14713.1
-14712.41
-14655.39
-14632.64
-14784.05
-15012.12
-15260.92
-15397.38
-15302.09
-14978.57
-14643.52
-14449.55
-14405.68
-14438.8
-14509.99
-14583.55
-14629.15
-14638.94
-14626.91
-14623.7
-14626
-14636.84
-14629.91
-14629.24
-14627.7
-14629.93
-14639.21
-14640.37
-14643.39
-14652.93
-14651.99
-14636.95
-14647.52
-14651.93
-14644.24
-14644.44
-14641.33
-14644.26
-14648.37
-14650.76
-14662.39
-14661.31
-14659.44
-14668.09
-14674.39
-14660.2
-14661.89
-14646.92
-14647.99
-14676.87
-14684.31
-14670.17
-14670.97
-14675.39
-14702.24
-14695.96
-14694.64
-14694.06
-14690.82
-14692.27
-14708.05
-14714.24
-14715.18
-14735.97
-14741.02
-14741.89
-14754.72
-14772.31
-14778.01
-14777.59
-14795.16
-14808.23
-14822.67
-14824.46
-14841.63
-14852.49
-14869.97
-14860.71
-14847.44
-14849.65
-14839.46
-14824.39
-14811.09
-14812.95
-14785.66
-14763.1
-14743.05
-14740.39
-14721.71
-14709.95
-14684.78
-14668.82
-14662.72
-14651.99
-14643.97
-14640.26
-14650.94
-14658.27
-14642.81
-14635.23
-14625.1
-14626.06
-14616.74
-14616.01
-14626.42
-14618.35
-14618.58
-14617.57
-14628.57
-14625.01
-14627.27
-14628.57
-14622.78
-14627.61
-14617.12
-14609.37
-14624.7
-14629.71
-14613.91
-14605.01
-14614.42
-14619.25
-14611.42
-14610.55
-14611.25
-14604.94
-14605.34
-14598.39
-14611.2
-14606.84
-14609.95
-14601.88
-14605.61
-14607.58
-14603
-14596.05
-14596.07
-14629.1
-14620.28
-14617.86
-14610.78
-14599.96
-14590.95
-14584.89
-14593.1
-14605.57
-14598.93
-14587.28
-14587.4
-14592.98
-14578.14
-14578.9
-14588.58
-14588.85
-14577.36
-14584.76
-14596.05
-14586.32
-14571.42
-14579.28
-14586.21
-14593.21
-14601.97
-14592.72
-14577.65
-14585.34
-14579.53
-14563.5
-14576.38
-14582.88
-14583.08
-14598.57
-14586.99
-14577.14
-14575.66
-14584.96
-14585.56
-14574.7
-14574.32
-14583.86
-14577.34
-14561.22
-14559.23
-14562.47
-14575.93
-14578.41
-14579.3
-14591.91
-14587.66
-14574.1
-14581.14
-14577.38
-14565.45
-14566.01
-14574.48
-14569
-14566.59
-14573.96
-14571.91
-14579.48
-14567.62
-14564.78
-14569.18
-14570.97
-14567.73
-14568.17
-14552.04
-14567.23
-14572.58
-14568.38
-14560.75
-14561.58
-14566.72
-14563.66
-14566.59
-14577.76
-14584.54
-14572.64
-14573.69
-14576.06
-14566.43
-14567.12
-14557.91
-14551.01
-14566.36
-14568.06
-14559.97
-14551.92
-14563.41
-14571.12
-14568.51
-14568.08
-14556.37
-14557.27
-14541.51
-14541.71
-14558.27
-14568.35
-14565.09
-14569.04
-14572.51
-14562.9
-14572.13
-14553.69
-14559.61
-14565.42
-14572.29
-14571.68
-14561.45
-14565.36
-14574.48
-14552.95
-14546.96
-14548.06
-14576.18
-14601.81
-14617.46
-14626.65
-14630.42
-14622
-14603.47
-14599.24
-14600.11
-14600.87
-14577.72
-14561.63
-14579.1
-14577.85
-14566.94
-14565.94
-14571.06
-14565.31
-14554.2
-14547.45
-14550.36
-14541.4
-14549.29
-14540.68
-14533.73
-14544.3
-14540.41
-14556.37
-14576.6
-14599.29
-14635.39
-14643.25
-14593.65
-14568.44
-14657.78
-14852.55
-15095.43
-15268.43
-15220.8
-14966.59
-14636.39
-14401.43
-14313.32
-14346.47
-14412.87
-14494.26
-14557.96
-14575.42
-14555.83
-14558.61
-14562.07
-14566.39
-14561.38
-14556.44
-14549.35
-14548.5
-14556.19
-14566.01
-14578.61
-14579.73
-14562.14
-14557.85
-14559.97
-14572.53
-14563.35
-14564.2
-14569.02
-14586.17
-14572.35
-14554.81
-14580.02
-14576.85
-14590.28
-14592.36
-14573.65
-14571.08
-14582.9
-14585.05
-14586.97
-14597.52
-14596.34
-14599.42
-14590.01
-14604.65
-14626.53
-14602.19
-14597.54
-14609.68
-14614.89
-14623.4
-14632.3
-14642.05
-14649.06
-14657.56
-14659.03
-14666.03
-14671.59
-14683.69
-14699
-14713.17
-14714.64
-14714.53
-14741.53
-14736.75
-14750.68
-14770.43
-14786.66
-14791.09
-14798.67
-14790.86
-14788.85
-14775.08
-14767.77
-14750.52
-14737.29
-14701.77
-14672.74
-14675.31
-14655.17
-14653.24
-14631.47
-14632.37
-14618.89
-14604.09
-14594.82
-14589.39
-14568
-14573.69
-14571.33
-14567.82
-14568.58
-14569.54
-14557.53
-14546.56
-14547.74
-14537.17
-14558.94
-14586.57
-14555.66
-14552.71
-14549.38
-14549.38
-14556.89
-14550.9
-14539.12
-14545.44
-14559.66
-14550.9
-14544.79
-14566.43
-14562.7
-14556.33
-14548.95
-14557.06
-14557.51
-14547.88
-14553.8
-14552.82
-14549.51
-14558.12
-14556.17
-14555.66
-14556.44
-14553.89
-14554.76
-14559.05
-14542.85
-14548.64
-14558.05
-14542.83
-14557.87
-14561.09
-14549.8
-14549.96
-14546.16
-14545.11
-14546.85
-14544.86
-14540.95
-14534.87
-14538.71
-14528.68
-14550.02
-14548.24
-14544.44
-14549.35
-14551.81
-14544.46
-14548.3
-14550.85
-14546.07
-14536.32
-14528.86
-14526.82
-14525.91
-14534.6
-14556.06
-14552.37
-14548.46
-14526.49
-14516.94
-14545.87
-14541.42
-14532.1
-14535.92
-14538.02
-14549.38
-14534.76
-14540.23
-14540.75
-14529.21
-14536.55
-14535.74
-14532.99
-14528.37
-14521.03
-14522.96
-14534.49
-14545.26
-14527.38
-14517.99
-14528.68
-14535.65
-14527.63
-14518.73
-14544.66
-14546.16
-14531.61
-14522.35
-14530.13
-14537.48
-14515.29
-14523.6
-14546.2
-14546.2
-14539.94
-14517.93
-14509.68
-14521.3
-14527.27
-14530.98
-14529.5
-14537.66
-14527.38
-14522.53
-14508.9
-14523.05
-14524.23
-14520.03
-14518.96
-14535.61
-14539.18
-14526.26
-14505.88
-14512.9
-14534.27
-14524.25
-14523.6
-14546.11
-14555.97
-14574.3
-14569.25
-14572.91
-14580.13
-14566.32
-14553.71
-14572.33
-14571.93
-14555.5
-14550.23
-14523.25
-14534.87
-14556.28
-14535.32
-14534.04
-14545.64
-14543.74
-14543.79
-14520.39
-14513.17
-14519.47
-14511.89
-14522.33
-14536.61
-14522.78
-14516.32
-14506.5
-14489.43
-14539.36
-14597.5
-14615.25
-14554.56
-14517.59
-14618.44
-14821.37
-15063.44
-15305.8
-15331.35
-15129.94
-14849.11
-14608.59
-14434.8
-14354.71
-14354.45
-14390.7
-14444.7
-14524.81
-14534.42
-14535.29
-14533.64
-14531.18
-14518.44
-14512.25
-14532.46
-14543.39
-14537.73
-14528.43
-14545.64
-14557.38
-14544.3
-14536.05
-14544.37
-14547.36
-14532.08
-14526.31
-14558.96
-14562.21
-14555.72
-14551.23
-14558.92
-14580.62
-14576.78
-14569.81
-14566.43
-14563.68
-14572.22
-14580.4
-14577.05
-14576.51
-14571.1
-14570.12
-14567.84
-14583.1
-14584.78
-14599.22
-14594.84
-14594.73
-14605.32
-14605.84
-14601.52
-14617.21
-14630.04
-14636.7
-14641.33
-14637.55
-14655.75
-14654.56
-14674.41
-14689.7
-14689.01
-14700.63
-14709.28
-14719.23
-14728.23
-14743.17
-14751.35
-14749.45
-14744.91
-14742.36
-14758.36
-14751.66
-14746.36
-14728.53
-14693.19
-14676.62
-14659.46
-14642.11
-14627.2
-14627.7
-14617.08
-14610.35
-14594.79
-14574.99
-14556.15
-14569.65
-14572.24
-14559.05
-14549.6
-14553.91
-14545.33
-14531.11
-14543.72
-14544.75
-14551.03
-14554.25
-14546
-14534.83
-14537.06
-14535.38
-14520.92
-14547.95
-14548.01
-14545.8
-14549.35
-14549.17
-14530.62
-14536.05
-14558.23
-14548.79
-14543.34
-14561.51
-14550.4
-14539.83
-14554.18
-14556.39
-14546.63
-14536.61
-14532.86
-14544.55
-14549.46
-14543.94
-14534.15
-14547.54
-14543.99
-14515.71
-14533.04
-14537.75
-14516.83
-14519.76
-14530.85
-14539.83
-14537.37
-14519.71
-14523.09
-14533.64
-14532.81
-14530.82
-14535.76
-14525.26
-14522.17
-14520.72
-14526.55
-14533.71
-14521.55
-14517.52
-14533.19
-14538.6
-14519.11
-14506.28
-14519.45
-14524.05
-14527.9
-14522.04
-14509.92
-14514.46
-14526.31
-14523.92
-14513.48
-14529.73
-14525.71
-14512.81
-14528.61
-14524.63
-14527.56
-14526.02
-14509.9
-14512.41
-14534.38
-14537.22
-14518.55
-14515.38
-14521.7
-14520.27
-14525.82
-14526.24
-14517.28
-14503.73
-14525.86
-14522.53
-14513.34
-14507.56
-14505.54
-14512.58
-14509.1
-14505.92
-14501.34
-14512.7
-14520.99
-14516.21
-14514.08
-14510.35
-14518.6
-14514.64
-14522.87
-14524.52
-14518.13
-14510.82
-14512.9
-14511.76
-14519.67
-14524.07
-14513.23
-14523.87
-14518.17
-14511.11
-14517.55
-14518.13
-14515.76
-14507.89
-14504.96
-14514.31
-14513.81
-14504.4
-14516.43
-14523.11
-14538.2
-14557.29
-14580.24
-14598.1
-14581.18
-14564.22
-14560.75
-14568.96
-14571.62
-14553.33
-14524.36
-14526.67
-14550.56
-14533.35
-14520.88
-14527.36
-14524.21
-14505.68
-14513.95
-14513.23
-14508.61
-14490.17
-14479.37
-14499.29
-14500.6
-14490.55
-14490.99
-14499.67
-14514.26
-14540.32
-14576.02
-14593.36
-14544.15
-14518.66
-14623.94
-14835.99
-15092.95
-15293.64
-15244.98
-14940.64
-14587.22
-14372.48
-14289.22
-14302.61
-14361.69
-14458.11
-14519.27
-14534.69
-14528.07
-14506.64
-14504.43
-14509.54
-14510.24
-14505.3
-14506.77
-14525.06
-14534.13
-14518.75
-14513.12
-14501.54
-14530.35
-14535.47
-14539.12
-14528.66
-14531.03
-14535.23
-14552.42
-14549.93
-14523.4
-14519.67
-14554.36
-14558.67
-14548.84
-14556.77
-14551.66
-14552.71
-14533.33
-14551.07
-14573.92
-14549.96
-14545.69
-14564.31
-14579.98
-14574.1
-14575.28
-14578.21
-14583.46
-14579.62
-14574.28
-14569.13
-14588.69
-14607.33
-14614.89
-14631.23
-14645.13
-14646.38
-14639.54
-14656.26
-14674.12
-14690.24
-14699.22
-14709.41
-14705.19
-14709.06
-14724.26
-14744.42
-14766.28
-14773.74
-14759.39
-14752.2
-14750.18
-14745.2
-14733.93
-14705.64
-14676.47
-14672.51
-14665.22
-14649.13
-14623.96
-14600.99
-14596.29
-14586.12
-14573.18
-14549.73
-14545.26
-14548.08
-14549.4
-14553.47
-14556.15
-14546.94
-14539.52
-14540.77
-14544.03
-14537.51
-14531.09
-14540.19
-14547.39
-14547.34
-14553.82
-14558.47
-14545.04
-14541.93
-14554.87
-14534.45
-14519.04
-14541.44
-14541.71
-14532.25
-14542.25
-14551.03
-14541.4
-14546.18
-14555.1
-14560.19
-14547.74
-14545.6
-14545.58
-14546.36
-14547.86
-14546.43
-14536.77
-14544.26
-14535.92
-14538.09
-14553.67
-14544.84
-14570.1
-14555.1
-14548.88
-14542.63
-14541.6
-14533.6
-14535.09
-14530.69
-14539.9
-14534.13
-14528.77
-14545.98
-14548.73
-14532.52
-14527.96
-14536.93
-14540.17
-14540.41
-14537.4
-14536.81
-14543.36
-14544.86
-14548.06
-14543.05
-14551.16
-14550.23
-14541.87
-14529.73
-14546.96
-14542.49
-14524.43
-14522.62
-14547.16
-14554.99
-14534.78
-14524.81
-14549.29
-14553.24
-14548.86
-14534.67
-14540.5
-14541.58
-14560.51
-14555.19
-14560.84
-14556.77
-14552.19
-14543.21
-14544.19
-14543.88
-14548.84
-14557.56
-14549.42
-14532.37
-14552.68
-14547.95
-14551.57
-14557.04
-14548.24
-14543.97
-14548.46
-14555.86
-14560.91
-14566.83
-14551.16
-14546.89
-14546.54
-14543.74
-14532.68
-14550.69
-14567.21
-14573.09
-14560.06
-14550.34
-14555.61
-14568.78
-14564.04
-14545.8
-14555.86
-14560.95
-14560.13
-14550.49
-14568.71
-14568.13
-14562.18
-14579.55
-14576.69
-14570.68
-14568.73
-14572.26
-14559.23
-14568.4
-14565.78
-14575.13
-14587.15
-14587.33
-14585.32
-14574.68
-14575.77
-14577.25
-14579.86
-14569.11
-14577
-14588.18
-14593.79
-14583.8
-14576.38
-14581.81
-14587.22
-14584.98
-14585.25
-14582.03
-14568
-14579.53
-14578.5
-14575.66
-14596.9
-14603.2
-14589.72
-14589.9
-14589.52
-14597.68
-14605.39
-14589.59
-14593.9
-14601.5
-14615.13
-14601.75
-14592.45
-14601.86
-14609.26
-14594.84
-14589.34
-14596.09
-14598.01
-14600.58
-14604.32
-14635.83
-14663.12
-14671.84
-14682.32
-14691.49
-14676.47
-14667.06
-14661.2
-14669.92
-14658.63
-14664.78
-14643.23
-14644.26
-14644.62
-14641.73
-14631.67
-14623.74
-14629.19
-14638.25
-14639.21
-14625.53
-14621.91
-14615.45
-14622.44
-14628.08
-14628.79
-14625.66
-14623.56
-14628.86
-14648.37
-14703.71
-14746.61
-14706.35
-14653.11
-14652.89
-14835.01
-15106
-15343.89
-15384.24
-15153.54
-14796.54
-14496.6
-14386.97
-14412.99
-14464.62
-14562.32
-14643.7
-14662.01
-14662.97
-14663.82
-14643.1
-14643.75
-14654.5
-14651.21
-14655.88
-14663.88
-14661.04
-14653.4
-14663.84
-14661.83
-14671.86
-14654.27
-14661.56
-14686.82
-14676.47
-14681.97
-14695.58
-14698.66
-14709.64
-14707.4
-14703.89
-14695.36
-14705.86
-14695.24
-14706.37
-14722.38
-14732.03
-14729.96
-14719.72
-14726.6
-14723.72
-14712.7
-14725.91
-14728.95
-14740.44
-14741.91
-14741.29
-14748.82
-14750.27
-14750.68
-14753.07
-14778.75
-14782.44
-14787.62
-14789.41
-14789.23
-14797.73
-14812.92
-14835.77
-14842.65
-14845.09
-14852.35
-14868.13
-14881.03
-14903.41
-14913.69
-14920.39
-14925.96
-14922.87
-14929.58
-14943.97
-14931.01
-14915.07
-14891.16
-14865.38
-14850.59
-14845.02
-14841.56
-14824.01
-14794.28
-14779.82
-14766.25
-14745.85
-14739.46
-14739.54
-14737.67
-14707.25
-14717.48
-14722.22
-14728.03
-14723.67
-14708.77
-14722.27
-14723.74
-14714.31
-14719.52
-14728.55
-14725.71
-14718.69
-14695.96
-14713.19
-14725.82
-14712.77
-14710.73
-14710.31
-14697.95
-14731.21
-14734.43
-14729.31
-14729.4
-14724.64
-14716.61
-14711.78
-14719.05
-14725.6
-14717.13
-14719
-14711.81
-14721.91
-14715.38
-14711.72
-14716.3
-14733.69
-14735.88
-14724.08
-14712.9
-14720.79
-14743.12
-14726.38
-14725.53
-14721.57
-14722.45
-14727.5
-14721.98
-14709.86
-14708.83
-14719.41
-14712.25
-14726.54
-14717.89
-14709.55
-14713.5
-14714.29
-14710.44
-14720.95
-14714.42
-14715.47
-14723.16
-14720.12
-14717.1
-14721.91
-14729.67
-14732.59
-14720.68
-14717.84
-14698.66
-14703.74
-14715.72
-14715.54
-14721.39
-14723.74
-14717.46
-14707.76
-14706.75
-14707.72
-14718.33
-14708.74
-14699.18
-14705.97
-14727.81
-14727.16
-14719.76
-14724.43
-14737.6
-14719.61
-14714.04
-14708.56
-14737.64
-14732.73
-14710.02
-14710.55
-14708.16
-14706.67
-14722.62
-14716.23
-14716.99
-14733.11
-14724.7
-14711.54
-14713.44
-14702.93
-14716.77
-14727.43
-14728.64
-14726.6
-14719.76
-14719.92
-14722.69
-14711.47
-14700.27
-14707.6
-14715.25
-14711.14
-14715.83
-14716.63
-14715.23
-14715.11
-14712.23
-14704.79
-14704.85
-14718.96
-14730.58
-14732.12
-14709.44
-14699.11
-14705.15
-14714.58
-14722.92
-14720.43
-14717.55
-14718.38
-14710.93
-14710.87
-14718.98
-14714.17
-14710.93
-14678.64
-14704.9
-14727.12
-14715.87
-14711.38
-14709.3
-14709.48
-14708.56
-14719.56
-14722.51
-14719.09
-14705.55
-14696.88
-14717.89
-14715.36
-14703.02
-14700.99
-14695.6
-14720.68
-14720.28
-14716.43
-14703.36
-14698.89
-14701.1
-14715.2
-14715.92
-14733.02
-14753.69
-14770.46
-14777.94
-14769.05
-14757.25
-14754.54
-14761
-14748.4
-14752.51
-14749.83
-14721.39
-14713.3
-14727.99
-14714.91
-14708.79
-14717.35
-14719.9
-14706.67
-14703.78
-14697.19
-14692.67
-14694.42
-14685.81
-14687.04
-14695.51
-14672.22
-14673.23
-14698.06
-14713.01
-14729.06
-14770.01
-14735.16
-14684.89
-14766.88
-14975.69
-15209.15
-15439.94
-15486.63
-15302.67
-15010.47
-14777.99
-14600.76
-14524.21
-14511.22
-14554.41
-14644.66
-14698.64
-14703.25
-14699.29
-14702.51
-14688.43
-14689.43
-14693.1
-14697.7
-14688.34
-14687.71
-14696.36
-14703.58
-14708.88
-14709.1
-14703.29
-14708.88
-14703.54
-14692.23
-14684.87
-14706.49
-14715.47
-14715.9
-14716.41
-14700.9
-14713.79
-14721.35
-14714.17
-14712.95
-14714.33
-14712.68
-14718.22
-14722.85
-14724.9
-14723.61
-14724.95
-14735.5
-14737.31
-14738.34
-14743.41
-14733.46
-14738.54
-14737
-14753.36
-14756.22
-14769.47
-14767.6
-14758.68
-14772.65
-14786.55
-14793.52
-14808.5
-14816.01
-14830.81
-14845.63
-14846.99
-14858.81
-14867.69
-14876.69
-14885.52
-14897.53
-14900.86
-14891.04
-14874.17
-14885.34
-14894.87
-14893.19
-14875.04
-14855.84
-14835.77
-14802.62
-14797.88
-14799.65
-14791.51
-14755.44
-14732.41
-14731.74
-14730.22
-14727.05
-14719.9
-14708.36
-14686.53
-14682.68
-14695.13
-14693.72
-14679.96
-14686.77
-14673.5
-14677.14
-14668.47
-14667.59
-14670.72
-14672.71
-14667.93
-14685.01
-14691.33
-14681.59
-14671.62
-14676.16
-14680.13
-14662.07
-14665.31
-14675.06
-14692.25
-14686.79
-14677.88
-14674.03
-14670.37
-14677.05
-14675.93
-14669.61
-14666.88
-14675.39
-14686.73
-14667.91
-14678.9
-14667.82
-14673.12
-14665.87
-14654.27
-14661.25
-14657.51
-14669.92
-14669.14
-14671.66
-14668.91
-14649.56
-14646
-14643.7
-14651.72
-14635.52
-14637.35
-14649.09
-14644.17
-14647.61
-14652.82
-14657
-14633.71
-14629.44
-14659.48
-14657.16
-14658.85
-14660.71
-14654.97
-14651.48
-14642.9
-14642.45
-14640.66
-14639.41
-14634.76
-14636.03
-14628.81
-14643.5
-14644.35
-14643.72
-14648.37
-14640.62
-14645.31
-14634.27
-14639.92
-14630.89
-14634
-14640.26
-14650.05
-14647.81
-14641.64
-14640.37
-14639.01
-14635.61
-14632.1
-14631.47
-14633.62
-14641.22
-14644.95
-14634.47
-14639.65
-14654.88
-14635.81
-14635.34
-14633.66
-14630.76
-14625.46
-14639.34
-14639.32
-14644.06
-14636.3
-14636.53
-14634.92
-14625.51
-14626.58
-14627.88
-14624.32
-14631.21
-14624.57
-14613.5
-14624.39
-14631.47
-14625.95
-14615.51
-14627.32
-14627.36
-14627.34
-14616.57
-14626.89
-14629.75
-14635.39
-14624.86
-14626.31
-14648.37
-14670.95
-14689.05
-14688.69
-14697.08
-14683.22
-14670.88
-14689.92
-14692
-14662.39
-14652.84
-14629.24
-14632.26
-14621.08
-14632.14
-14635.23
-14632.23
-14620.43
-14614.84
-14613.21
-14585.32
-14599.87
-14606.57
-14594.46
-14595.46
-14604.5
-14609.01
-14600
-14606.17
-14635.14
-14680.04
-14696.07
-14659.19
-14617.35
-14671.86
-14885.55
-15135.84
-15369.44
-15384.24
-15108.57
-14762.41
-14499.35
-14385.52
-14396.94
-14459.88
-14535.18
-14606.4
-14624.57
-14608.61
-14606.08
-14588.42
-14594.62
-14614.67
-14609.73
-14614.4
-14613.55
-14612.32
-14606.06
-14603.78
-14612.39
-14610.96
-14606.55
-14609.14
-14606.8
-14619.43
-14622.96
-14627.07
-14626.56
-14620.63
-14615.72
-14619.94
-14631.32
-14633.55
-14631.83
-14632.37
-14638.69
-14640.59
-14631.41
-14637.84
-14652.39
-14647.28
-14631.99
-14650.79
-14672.98
-14659.77
-14661.6
-14660.78
-14660.31
-14666.39
-14678.19
-14684.13
-14677.41
-14676.42
-14702.78
-14713.08
-14719.41
-14724.23
-14733.98
-14756.64
-14762.19
-14772.47
-14775.91
-14800.97
-14802.71
-14802.53
-14805.77
-14839.12
-14848.42
-14844.91
-14854.43
-14838.81
-14831.86
-14812.99
-14801.82
-14763.93
-14738.63
-14732.84
-14724.7
-14703.02
-14668.49
-14656.58
-14674.55
-14656.04
-14649.31
-14651.63
-14636.57
-14613.88
-14620.3
-14617.53
-14627.14
-14624.99
-14605.72
-14604
-14610.37
-14610.98
-14598.97
-14601.79
-14600.65
-14605.03
-14596.96
-14594.15
-14591.98
-14594.06
-14605.39
-14605.39
-14603.44
-14600.36
-14599.6
-14613.26
-14618.89
-14604.94
-14597.32
-14605.32
-14599.22
-14591.98
-14601.59
-14593.9
-14585.56
-14606.33
-14607.13
-14589.79
-14604.99
-14599.18
-14603.2
-14596.16
-14584.78
-14597.45
-14606.91
-14607
-14595.11
-14594.82
-14591.67
-14593.05
-14590.46
-14596.9
-14596.36
-14587.84
-14575.39
-14575.04
-14585.12
-14596.4
-14605.61
-14589.32
-14579.84
-14588.98
-14594.26
-14571.46
-14568.89
-14589.56
-14578.28
-14588.36
-14594.77
-14601.14
-14604.56
-14588.02
-14574.9
-14590.68
-14597.86
-14590.86
-14595.11
-14602.77
-14586.1
-14594.5
-14597.75
-14591.93
-14599.18
-14580.98
-14570.36
-14587.6
-14583.06
-14590.19
-14579.46
-14583.55
-14595.11
-14600.18
-14595.31
-14605.79
-14605.25
-14592.58
-14606.75
-14608.43
-14600.2
-14596.96
-14599.31
-14590.37
-14594.03
-14606.89
-14586.21
-14584
-14602.21
-14595.96
-14589.7
-14594.93
-14602.77
-14592.45
-14583.82
-14588.8
-14615.78
-14622.33
-14609.61
-14601.37
-14618.76
-14616.63
-14612.45
-14603.51
-14593.19
-14599.47
-14607.49
-14587.22
-14596.83
-14615.89
-14608.07
-14607.47
-14608.92
-14612.09
-14610.87
-14610.64
-14607.96
-14612.81
-14611.33
-14606.71
-14610.42
-14613.03
-14615.96
-14616.21
-14611
-14618.69
-14643.14
-14671.04
-14680
-14679.69
-14677.27
-14682.01
-14666.95
-14679.08
-14689.95
-14689.16
-14665.29
-14644.04
-14648.3
-14639.83
-14643.28
-14650.61
-14646.63
-14636.3
-14636.53
-14626.47
-14617.75
-14626.67
-14627.43
-14629.13
-14634.51
-14637.73
-14636.19
-14632.95
-14664.78
-14712.12
-14742.07
-14712.52
-14653.42
-14679.04
-14846.77
-15081.41
-15322.43
-15391.12
-15199.72
-14850.59
-14556.35
-14420.18
-14427.49
-14474.03
-14570.77
-14650.32
-14671.28
-14660.38
-14654
-14660.96
-14668.6
-14669.34
-14659.48
-14672.15
-14670.1
-14668.8
-14675.75
-14682.77
-14677.14
-14659.88
-14667.13
-14690.66
-14700.05
-14700.9
-14707.76
-14701.28
-14699.09
-14696.07
-14705.57
-14714.98
-14706.17
-14705.01
-14708.77
-14705.17
-14698.17
-14710.4
-14721.73
-14729.17
-14719.45
-14720.95
-14727.47
-14752.58
-14757.07
-14754.48
-14742.07
-14733.08
-14756.22
-14764.13
-14763.97
-14772.04
-14787.27
-14793.93
-14786.71
-14800.68
-14810.31
-14814.2
-14826.11
-14835.05
-14834.65
-14870.15
-14890.15
-14886.75
-14896.12
-14907.27
-14926.81
-14937.36
-14929.27
-14941.27
-14950.28
-14940.53
-14943.75
-14929.15
-14923.37
-14917.96
-14888.7
-14858.75
-14835.84
-14830.74
-14810.06
-14791.85
-14787.15
-14773.05
-14766.61
-14749.85
-14757.65
-14752.58
-14763.75
-14757.9
-14750.03
-14743.81
-14742.79
-14733.4
-14736.44
-14743.17
-14738.81
-14731.12
-14739.9
-14742.41
-14741.67
-14731.43
-14743.7
-14739.79
-14728.93
-14739.39
-14743.86
-14752.17
-14752.44
-14751.12
-14758.9
-14768.49
-14770.66
-14766.05
-14742.03
-14741.62
-14745.8
-14760.42
-14757.92
-14755.53
-14751.12
-14746.76
-14753.49
-14763.71
-14765.65
-14761.34
-14754.16
-14750.21
-14767.04
-14770.97
-14763.35
-14765.41
-14763.64
-14746
-14737.09
-14741.67
-14751.57
-14756.29
-14750.74
-14755.93
-14760.85
-14752.2
-14748.28
-14746.56
-14759.44
-14771.75
-14764.13
-14762.37
-14770.5
-14757.78
-14757.29
-14750.05
-14753.65
-14749
-14748.57
-14738.65
-14761.58
-14779.49
-14766.7
-14762.41
-14764.82
-14767.01
-14771.95
-14765.25
-14744.26
-14752.08
-14764.38
-14773.41
-14761.18
-14752.13
-14761.34
-14762.43
-14759.62
-14764.89
-14759.15
-14753.92
-14753.6
-14770.03
-14778.55
-14773.21
-14766.54
-14765.34
-14767.95
-14767.84
-14763.37
-14775.06
-14773.47
-14771.13
-14764.85
-14768.4
-14768.53
-14767.1
-14774.14
-14771.02
-14768.45
-14758.88
-14771.4
-14767.1
-14775.73
-14766.93
-14767.01
-14764.02
-14766.72
-14778.06
-14769.7
-14775.87
-14770.41
-14773.83
-14784.27
-14803.74
-14786.51
-14793.59
-14819.21
-14818.2
-14831.21
-14849.98
-14840.82
-14830.09
-14844.44
-14860.09
-14851.75
-14832.37
-14810.11
-14806.82
-14814.69
-14805.62
-14803.92
-14810.8
-14815.83
-14801.08
-14788.61
-14771.87
-14754.18
-14779.35
-14778.68
-14763.42
-14767.66
-14762.86
-14770.19
-14767.57
-14761.11
-14770.28
-14823.21
-14824.88
-14771.69
-14765.65
-14871.8
-15095.34
-15334.32
-15540.76
-15547.02
-15343.69
-15056.94
-14836.73
-14666.52
-14600.34
-14612.14
-14669.7
-14742.18
-14778.3
-14776.18
-14784.32
-14779.35
-14773.65
-14761.45
-14758.88
-14768.02
-14773.47
-14779.51
-14774.26
-14792.92
-14786.59
-14792.21
-14787.76
-14788.54
-14793.08
-14799.92
-14784.99
-14786.75
-14783.13
-14793.52
-14811.23
-14811.52
-14800.41
-14802.89
-14808.66
-14809.93
-14809.55
-14796.05
-14797.91
-14811.34
-14829.17
-14831.63
-14835.46
-14824.66
-14814.45
-14815.45
-14835.66
-14833.76
-14839.03
-14842.83
-14846.39
-14859.95
-14861.88
-14867.42
-14868.33
-14886.08
-14907.21
-14901.5
-14904.1
-14924.68
-14932.06
-14930.5
-14940
-14957.45
-14964.29
-14984.92
-14990.35
-15005.8
-15019.95
-15006.22
-14998.89
-14996.5
-14982.84
-14969.61
-14946.32
-14945.67
-14942.21
-14924.33
-14913.84
-14890.51
-14867.69
-14854.39
-14841.6
-14846.16
-14839.39
-14826
-14820.3
-14810.91
-14801.24
-14806.42
-14800.54
-14790.35
-14779.67
-14793.79
-14789.17
-14773.14
-14790.95
-14796.79
-14796.18
-14790.51
-14780.81
-14787.53
-14786.04
-14776.38
-14766.17
-14765.25
-14770.86
-14777.77
-14792.12
-14790.57
-14792.96
-14793.88
-14778.17
-14764.47
-14766.99
-14766.95
-14784.27
-14771.6
-14773.7
-14788.99
-14790.28
-14782.77
-14775.08
-14762.08
-14754.12
-14778.68
-14765.27
-14755.44
-14767.51
-14754.25
-14752.98
-14750.45
-14749.63
-14750.43
-14747.68
-14742.94
-14750.83
-14764.13
-14763.75
-14763.24
-14755.21
-14750.5
-14738.16
-14730.29
-14738
-14739.77
-14735.03
-14747.17
-14746.25
-14742.16
-14744.13
-14736.64
-14741.33
-14750.14
-14749.98
-14743.63
-14738.54
-14737.49
-14747.55
-14736.37
-14730.78
-14734.18
-14734.76
-14745.58
-14747.14
-14731.63
-14730.63
-14730.65
-14727.9
-14733.35
-14734.65
-14725.62
-14719.61
-14720.77
-14727.94
-14737.64
-14728.97
-14727.7
-14725.06
-14720.21
-14718.94
-14721.66
-14735.92
-14720.23
-14714.96
-14729.89
-14724.32
-14717.84
-14735.63
-14735.12
-14736.71
-14734
-14718.76
-14726.56
-14737.26
-14740.68
-14757.76
-14771.84
-14781.92
-14767.77
-14764.62
-14776
-14804.14
-14801.62
-14789.21
-14774.41
-14766.7
-14767.06
-14746.14
-14734.2
-14738.96
-14742.52
-14718.6
-14723.12
-14730.96
-14712.95
-14698.17
-14685.74
-14699.87
-14692.43
-14688.47
-14688.87
-14689.32
-14707.29
-14714.47
-14741.85
-14777.79
-14787.6
-14730.8
-14683.33
-14781.34
-15009.11
-15266.89
-15469.49
-15459.83
-15214.97
-14884.74
-14649.8
-14516.32
-14475.93
-14527.65
-14602.57
-14667.77
-14701.5
-14709.88
-14693.9
-14697.88
-14679.33
-14682.79
-14702.44
-14704.63
-14697.01
-14677.65
-14684.45
-14711.25
-14706.93
-14702.96
-14708.59
-14701.46
-14700.18
-14696.63
-14691.53
-14697.14
-14702.57
-14712.28
-14706.42
-14710.38
-14712.66
-14724.86
-14705.23
-14702.13
-14722.24
-14710.35
-14714.38
-14726.89
-14732.08
-14718.71
-14718.04
-14721.15
-14732.33
-14735.7
-14731.34
-14740.44
-14744.1
-14753.87
-14763.04
-14756.44
-14758.21
-14741.4
-14743.34
-14771.33
-14781.07
-14800.36
-14815.88
-14822.69
-14825.4
-14833.73
-14852.33
-14863.71
-14866.06
-14855.28
-14879.27
-14887.89
-14906.36
-14906.51
-14897.24
-14885.05
-14886.13
-14880.72
-14849.83
-14831.99
-14827.12
-14802.31
-14790.98
-14768.07
-14747.43
-14731.68
-14717.82
-14720.66
-14716.81
-14709.37
-14697.59
-14697.5
-14696.16
-14684.34
-14678.75
-14670.14
-14670.32
-14674.41
-14675.35
-14683.29
-14681.56
-14668.62
-14668.98
-14671.62
-14665.47
-14677.38
-14679.17
-14674.17
-14682.17
-14690.37
-14681.61
-14663.3
-14660.13
-14663.91
-14661.76
-14648.3
-14664.78
-14694.46
-14686.97
-14668.35
-14651.41
-14663.19
-14665.83
-14655.73
-14666.07
-14682.55
-14678.32
-14658.09
-14664.42
-14665.29
-14665.05
-14660.89
-14655.97
-14650.94
-14652.89
-14662.3
-14658.63
-14647.63
-14650.32
-14647.1
-14635.61
-14648.06
-14651.66
-14655.7
-14641.04
-14626.02
-14634.78
-14637.96
-14646.47
-14640.15
-14620.37
-14623.34
-14638.11
-14629.42
-14626.38
-14653.51
-14651.88
-14641.17
-14632.95
-14633.84
-14630.38
-14627.41
-14633.53
-14628.63
-14625.91
-14622.85
-14618.64
-14631.07
-14628.03
-14624.61
-14626.6
-14619.52
-14619.58
-14627.61
-14629.04
-14626.29
-14634.51
-14632.9
-14625.17
-14616.79
-14611.25
-14619.38
-14622.71
-14614.98
-14613.32
-14627.07
-14621.88
-14612.63
-14611.22
-14613.1
-14611.4
-14611.16
-14607.27
-14614.4
-14627.92
-14622.11
-14626.44
-14625.35
-14635.18
-14633.71
-14655.59
-14666.19
-14682.23
-14693.28
-14679.15
-14681.09
-14677.21
-14692.72
-14690.15
-14682.1
-14659.19
-14640.66
-14647.12
-14651.88
-14640.44
-14628.01
-14620.45
-14609.26
-14607.18
-14610.33
-14596.63
-14599.47
-14601.21
-14600.47
-14596.74
-14598.35
-14597.45
-14595.33
-14590.41
-14602.66
-14634.56
-14684.76
-14705.08
-14661.63
-14625.33
-14683.91
-14879.8
-15111.95
-15322.14
-15346.1
-15085.04
-14732.91
-14476.04
-14371.63
-14398.03
-14447.54
-14535.76
-14604.05
-14608.67
-14602.15
-14612.97
-14615.6
-14609.57
-14597.23
-14601.1
-14606.8
-14609.3
-14600.56
-14610.15
-14623.2
-14628.75
-14618.2
-14621.48
-14624.77
-14623.32
-14636.5
-14623.72
-14630.36
-14622.24
-14629.31
-14623.2
-14620.83
-14633.64
-14646.34
-14642.25
-14633.98
-14638.18
-14632.55
-14638.98
-14653.04
-14658.81
-14646.76
-14650.32
-14659.39
-14655.3
-14660.38
-14669.09
-14648.37
-14659.66
-14678.03
-14691.26
-14694.06
-14712.16
-14723.18
-14722.51
-14714.24
-14722.56
-14728.08
-14741.47
-14752.64
-14762.68
-14764.8
-14779.17
-14800.07
-14809.93
-14829.69
-14839.86
-14849.45
-14846.25
-14843.28
-14842.05
-14838.5
-14827.45
-14813.84
-14796.61
-14788.05
-14766.17
-14735.32
-14723.54
-14722.47
-14706.64
-14689.14
-14669.72
-14663.33
-14660.67
-14660.44
-14662.65
-14648.3
-14638.47
-14640.19
-14642.65
-14630.51
-14616.79
-14625.44
-14641.67
-14651.48
-14637.82
-14635.25
-14630.71
-14644.97
-14647.66
-14621.55
-14617.12
-14642.49
-14658.07
-14639.16
-14636.64
-14658.27
-14662.27
-14642.38
-14633.49
-14619.14
-14637.73
-14649.47
-14653.56
-14663.82
-14658.23
-14647.97
-14643.61
-14644.06
-14649.42
-14663.28
-14652.17
-14642.27
-14649.36
-14643.72
-14657.69
-14659.7
-14665.9
-14665.47
-14663.1
-14661.29
-14651.01
-14635.61
-14647.37
-14667.62
-14668.91
-14674.19
-14672.62
-14666.59
-14670.43
-14677.63
-14673.12
-14659.53
-14645.24
-14656.19
-14672.49
-14648.15
-14657.27
-14671.44
-14667.79
-14658.77
-14661.18
-14667.55
-14693.28
-14694.73
-14674.75
-14672.15
-14674.57
-14673.67
-14673.41
-14678.9
-14686.35
-14689.61
-14683.84
-14682.82
-14684.13
-14682.5
-14675.46
-14695.89
-14701.46
-14702.44
-14700.38
-14690.08
-14708.95
-14699.76
-14688.87
-14693.9
-14692.96
-14697.63
-14702.17
-14703.47
-14700.94
-14704.47
-14702.17
-14676.4
-14704.68
-14718.78
-14701.66
-14709.17
-14704.5
-14715
-14728.79
-14729.04
-14721.77
-14728.26
-14731.12
-14712.97
-14699.62
-14722.96
-14738.09
-14721.82
-14742.47
-14736.13
-14714.78
-14717.89
-14710.2
-14718.76
-14750.12
-14751.39
-14743.14
-14740.75
-14746.67
-14725.64
-14726.33
-14752.78
-14772.02
-14771.93
-14775.67
-14806.89
-14829.15
-14812.03
-14796.83
-14813.28
-14818.45
-14823.94
-14828.08
-14802.44
-14803.69
-14797.06
-14781.12
-14769.56
-14773.92
-14763.82
-14767.69
-14774.53
-14774.73
-14769.92
-14745.78
-14750.9
-14750.59
-14760.67
-14753.65
-14757.98
-14778.62
-14770.19
-14781.72
-14806.71
-14852.13
-14864.22
-14805.15
-14755.48
-14883.78
-15125.34
-15363.34
-15539.36
-15471.16
-15215.12
-14935.66
-14697.03
-14596.63
-14607.47
-14651.34
-14705.82
-14772.51
-14800.36
-14802.24
-14794.26
-14794.49
-14794.82
-14797.88
-14796.81
-14799.54
-14803.6
-14803.98
-14807.29
-14823.01
-14805.77
-14816.12
-14831.37
-14823.23
-14821.6
-14838.36
-14835.28
-14827.05
-14820.21
-14826
-14834.56
-14839.39
-14845.78
-14855.44
-14857.83
-14845.65
-14837.96
-14842.56
-14853.65
-14861.7
-14856.8
-14863.19
-14868.92
-14879.76
-14879.24
-14887.76
-14895.38
-14893.48
-14887.85
-14891.98
-14899.14
-14914.31
-14913.17
-14919.05
-14923.95
-14938.32
-14951.28
-14943.62
-14967.51
-14976.7
-14998.04
-15009.91
-15025.42
-15047.31
-15042.66
-15041.56
-15056.38
-15068.18
-15079.47
-15096.05
-15072.09
-15056.6
-15060.52
-15050.57
-15040.13
-15025
-14986.42
-14982.04
-14975.83
-14950.05
-14947.95
-14931.12
-14903.18
-14891.94
-14897.84
-14896.7
-14871.89
-14893.46
-14897.95
-14864.51
-14866.46
-14869.03
-14875.47
-14879.69
-14881.5
-14869.25
-14865.27
-14879.44
-14877.54
-14867.04
-14869.3
-14879.04
-14885.01
-14889.75
-14870.19
-14884.83
-14884.45
-14884.34
-14863.19
-14865.45
-14875.91
-14875.24
-14894.84
-14896.92
-14885.84
-14889.48
-14891.6
-14882.39
-14887.07
-14889.32
-14893.57
-14879.27
-14881.66
-14912.01
-14906.31
-14881.01
-14876.45
-14880.63
-14864.94
-14870.48
-14893.79
-14875.17
-14869.14
-14884.79
-14876.67
-14871.6
-14880.7
-14885.34
-14882.89
-14880.9
-14874.44
-14871.75
-14872.2
-14883.29
-14881.48
-14876.58
-14875.96
-14874.55
-14876.72
-14876.47
-14874.5
-14878.53
-14896.54
-14884.76
-14881.77
-14888.88
-14876.07
-14879.22
-14880.74
-14875.24
-14870.97
-14866.5
-14884.92
-14889.59
-14880.11
-14875.91
-14867.84
-14876.31
-14880.38
-14876.29
-14869.86
-14881.05
-14870.64
-14869.65
-14864.16
-14878.64
-14892.72
-14887.96
-14863.4
-14863.82
-14871.08
-14864.94
-14873.52
-14876.49
-14875.22
-14882.24
-14856.13
-14859.46
-14891.11
-14902.38
-14894.6
-14905.37
-14928.06
-14923.72
-14915.86
-14906.76
-14907.03
-14903.65
-14919.34
-14903.61
-14895.11
-14879.87
-14879.06
-14886.06
-14878.01
-14872.09
-14870.26
-14860.91
-14868.2
-14863.06
-14851.35
-14857.63
-14844.44
-14849.74
-14844.08
-14835.72
-14839.64
-14821.26
-14837.4
-14837.8
-14846.34
-14865.45
-14891.65
-14932.02
-14894.55
-14840.98
-14903.18
-15122.25
-15370.09
-15570.63
-15600
-15418.19
-15121.47
-14874.46
-14709.64
-14656.28
-14661.92
-14716.61
-14794.98
-14841.67
-14852.87
-14835.84
-14825.78
-14835.17
-14837.58
-14828.42
-14831.34
-14849.92
-14853.85
-14837.18
-14829.78
-14844.33
-14848.93
-14837.96
-14850.74
-14846.88
-14849.13
-14827.01
-14834.16
-14850.79
-14841.92
-14844.33
-14855.28
-14855.62
-14858.86
-14839.79
-14848.53
-14859.98
-14856.78
-14853.09
-14856.24
-14857.88
-14873.97
-14865.81
-14850.32
-14846.09
-14879.91
-14887.29
-14872.54
-14868.02
-14869.99
-14865.14
-14883.18
-14895.27
-14888.43
-14895.22
-14906.65
-14920.06
-14925.62
-14928.66
-14923.45
-14930.05
-14963.38
-14971.98
-14991
-14991.96
-14996.92
-15007.12
-15016.93
-15017.33
-15010.25
-14993.24
-14987.98
-14987.65
-14973.57
-14953.54
-14947.71
-14937
-14910.27
-14896.16
-14882.82
-14861.65
-14844.31
-14847.59
-14841.36
-14824.08
-14812.81
-14816.3
-14805.39
-14798.11
-14801.71
-14796.43
-14795.33
-14795.07
-14787.65
-14792.81
-14793.7
-14782.42
-14774.41
-14777.65
-14778.57
-14787.11
-14789.25
-14783.93
-14789.99
-14799.69
-14802.96
-14782.64
-14768.74
-14789.46
-14788.74
-14777.01
-14775.55
-14791.76
-14798.17
-14786.06
-14783.62
-14774.19
-14759.59
-14769.61
-14782.59
-14786.53
-14762.34
-14760.49
-14764.35
-14767.73
-14770.46
-14754.27
-14749.78
-14762.79
-14752.29
-14746.47
-14766.25
-14771.24
-14770.95
-14761.85
-14758.32
-14748.62
-14735.99
-14730.96
-14741
-14749.09
-14751.99
-14752.84
-14739.83
-14734.54
-14742.61
-14750.27
-14749.54
-14749.33
-14743.79
-14741.51
-14732.71
-14731.52
-14742.12
-14761.56
-14745.69
-14744.57
-14717.86
-14724.19
-14733.29
-14723.41
-14729.26
-14745.38
-14738.43
-14740.57
-14736.66
-14734.65
-14735.66
-14728.06
-14735.86
-14736.26
-14719.5
-14715.4
-14719.83
-14713.48
-14719.76
-14722.65
-14728.23
-14723.96
-14723.7
-14721.39
-14709.44
-14701.86
-14702.93
-14710.55
-14713.75
-14724.75
-14728.48
-14713.04
-14706.84
-14711.16
-14710.93
-14706.26
-14711.18
-14701.35
-14685.34
-14707.4
-14712.03
-14718.13
-14707.36
-14699.45
-14709.5
-14700.27
-14682.91
-14703.47
-14706.42
-14681.3
-14684.92
-14711.07
-14709.95
-14693.39
-14692.32
-14699.04
-14691.51
-14691.44
-14686.3
-14686.97
-14699.33
-14703.74
-14714.64
-14728.84
-14739.16
-14755.48
-14756.78
-14756.33
-14739.95
-14734.02
-14729.64
-14727.61
-14737.38
-14718.56
-14712.86
-14710.82
-14718.91
-14707.2
-14687.51
-14693.95
-14694.17
-14691.22
-14672.94
-14667.46
-14671.86
-14651.68
-14664.49
-14670.9
-14683.82
-14678.7
-14683.06
-14682.15
-14680.87
-14692.78
-14725.55
-14767.93
-14791.42
-14732.95
-14680.31
-14765.36
-14983.76
-15236.27
-15424.92
-15367.99
-15085.57
-14750.07
-14496.65
-14448.03
-14477.25
-14550.09
-14641.71
-14689.1
-14687.46
-14676.6
-14682.23
-14683.06
-14686.08
-14683.73
-14687.49
-14688.16
-14686.26
-14696.2
-14689.3
-14679.57
-14694.1
-14700.72
-14708.81
-14697.17
-14678.66
-14700.12
-14700.38
-14704.94
-14700.18
-14698.8
-14695.49
-14700.72
-14701.73
-14704.45
-14710.4
-14708.95
-14720.05
-14706.42
-14704.34
-14721.01
-14718.11
-14711.45
-14717.71
-14717.64
-14713.64
-14716.03
-14726.69
-14726.65
-14733.06
-14731.12
-14733.4
-14754.32
-14748.28
-14767.44
-14765.16
-14773.05
-14784.99
-14807.92
-14818.11
-14820.37
-14827.1
-14850.28
-14851.24
-14856.02
-14865.92
-14886.35
-14881.05
-14898.76
-14914.67
-14913.22
-14894.38
-14894.64
-14890.49
-14877.99
-14861.09
-14834.23
-14825.98
-14817.06
-14792.14
-14765.81
-14760.24
-14752.64
-14732.39
-14730.38
-14714.98
-14698.48
-14699.02
-14691.29
-14693.59
-14695.78
-14696.07
-14691.94
-14688.54
-14679.24
-14670.54
-14672.76
-14692.4
-14682.3
-14669.14
-14667.59
-14663.79
-14672.91
-14662.88
-14667.68
-14665.27
-14674.86
-14682.1
-14668.96
-14658.85
-14652.15
-14673.96
-14672
-14676.98
-14683.35
-14687.44
-14674.39
-14682.19
-14672.96
-14680.22
-14670.61
-14663.21
-14664.08
-14671.73
-14665.56
-14647.05
-14665.25
-14664.69
-14674.08
-14670.1
-14662.1
-14658.09
-14653.49
-14654.07
-14646.81
-14646.85
-14654.85
-14648.35
-14654.56
-14644.35
-14662.39
-14663.44
-14657.2
-14656.53
-14645.89
-14652.69
-14664.33
-14656.33
-14645.22
-14641.51
-14643.83
-14648.28
-14644.68
-14639.36
-14642.38
-14652.73
-14645.91
-14639.54
-14639.41
-14634.94
-14620.66
-14636.46
-14634.96
-14625.68
-14637.8
-14629.86
-14631.5
-14640.48
-14651.5
-14641.26
-14637.4
-14634.42
-14639.81
-14647.79
-14643.66
-14632.95
-14629.82
-14634.45
-14644.95
-14627.9
-14622
-14619.54
-14624.72
-14645.02
-14650.14
-14651.95
-14645.38
-14632.73
-14629.48
-14627.32
-14635.99
-14637.26
-14635.18
-14628.97
-14632.17
-14622.67
-14621.77
-14625.93
-14633.49
-14639.3
-14639.05
-14642.49
-14647.59
-14642.43
-14627.52
-14628.14
-14642.58
-14632.7
-14624.1
-14632.03
-14650.99
-14652.15
-14637.93
-14636.61
-14636.41
-14643.99
-14635.34
-14616.07
-14628.32
-14639.52
-14646.09
-14634.29
-14643.79
-14643.95
-14631.67
-14643.12
-14634.89
-14619.63
-14640.64
-14637.35
-14628.46
-14631.72
-14641.29
-14634.85
-14632.03
-14620.63
-14615.6
-14627.88
-14652.66
-14646.85
-14639.54
-14637.46
-14631.12
-14631.27
-14627.36
-14643.03
-14639.41
-14636.75
-14635
-14629.57
-14626.29
-14624.99
-14628.39
-14639.03
-14638.85
-14633.8
-14627.03
-14626.94
-14643.23
-14639.97
-14647.08
-14657.11
-14668.76
-14664.35
-14687.02
-14699.67
-14682.06
-14673.14
-14669.94
-14683.11
-14688.45
-14677.54
-14662.45
-14629.86
-14631.32
-14663.08
-14663.77
-14642.49
-14658.65
-14657.54
-14633.98
-14629.75
-14644.33
-14642.2
-14632.88
-14633.96
-14632.46
-14637.17
-14625.3
-14631
-14651.9
-14649.78
-14666.14
-14714.58
-14736.15
-14673.99
-14610.06
-14699.92
-14907.67
-15144.07
-15375.65
-15396.42
-15182.89
-14873.07
-14610.42
-14468.1
-14438.62
-14474.63
-14544.66
-14611.27
-14647.72
-14665.52
-14660.38
-14631.23
-14630.76
-14650
-14648.64
-14639.95
-14644.5
-14649.13
-14653.42
-14645.85
-14661.87
-14661.38
-14653.11
-14660.13
-14658.3
-14671.66
-14656.96
-14651.79
-14653.69
-14662.14
-14677.12
-14671.77
-14670.03
-14664.4
-14665.76
-14659.32
-14657.96
-14670.19
-14681.43
-14675.48
-14680
-14686.26
-14695.29
-14696.29
-14686.24
-14689.52
-14679.66
-14683.13
-14692.18
-14700.43
-14708.43
-14728.7
-14729.78
-14718.65
-14728.99
-14733.67
-14741.27
-14755.46
-14761.52
-14768.71
-14779.69
-14798.53
-14810.35
-14826.78
-14826.56
-14841.54
-14842.92
-14857.99
-14868.65
-14868.74
-14862.68
-14872.98
-14873.05
-14859.13
-14841.92
-14822.16
-14816.26
-14799.33
-14776.98
-14747.05
-14743.46
-14735.41
-14700.81
-14689.92
-14699.94
-14684.72
-14672.15
-14665.69
-14661.04
-14657.02
-14648.46
-14648.8
-14651.28
-14655.08
-14643.61
-14636.23
-14633.89
-14638.4
-14653.13
-14662.3
-14647.59
-14636.61
-14639.99
-14633.73
-14628.3
-14630.69
-14653.02
-14626.4
-14620.7
-14649.47
-14651.19
-14643.92
-14635.54
-14647.3
-14630.87
-14630.98
-14637.2
-14637.75
-14649.18
-14638.2
-14637.91
-14641.82
-14635.7
-14627.92
-14613.61
-14628.23
-14625.57
-14625.17
-14622.11
-14616.9
-14625.33
-14640.48
-14624.95
-14632.43
-14643.54
-14637.17
-14624.12
-14626.31
-14620.63
-14607.6
-14609.14
-14614.78
-14610.71
-14613.77
-14625.91
-14615.07
-14613.5
-14610.8
-14605.61
-14590.1
-14619.09
-14612.21
-14627.96
-14630.42
-14610.55
-14604.65
-14618.35
-14623.49
-14618.22
-14630.04
-14643.05
-14621.33
-14606.71
-14612.27
-14627.85
-14617.62
-14611.09
-14611.02
-14617.53
-14613.1
-14604.23
-14619.85
-14618.24
-14626.24
-14617.84
-14621.06
-14627.27
-14601.48
-14592.38
-14617.71
-14622.71
-14624.75
-14625.89
-14625.33
-14630.94
-14616.97
-14612.21
-14612.34
-14615.49
-14610.91
-14612.61
-14600.34
-14604.03
-14627.12
-14632.28
-14626.94
-14643.54
-14661.83
-14664.4
-14658.88
-14676.67
-14671.04
-14652.66
-14637.69
-14651.03
-14656.22
-14660.22
-14645.18
-14619.65
-14633.51
-14636.26
-14629.84
-14641.15
-14637.02
-14622.89
-14622.98
-14617.12
-14629.75
-14616.01
-14604.67
-14592
-14593.61
-14606.04
-14613.44
-14611.04
-14614.71
-14612.41
-14628.81
-14675.73
-14699.87
-14628.28
-14592.4
-14716.14
-14951.91
-15199.59
-15379.7
-15329.92
-15065.39
-14754.97
-14532.7
-14426.46
-14406.46
-14457.17
-14534.47
-14602.44
-14628.59
-14630.29
-14630.45
-14620.88
-14619.6
-14626.27
-14627.25
-14625.98
-14632.5
-14629.06
-14639.07
-14649.69
-14648.37
-14634.07
-14631.54
-14638.96
-14637.44
-14642.76
-14651.72
-14651.75
-14662.21
-14667.21
-14659.82
-14669.09
-14667.13
-14659.44
-14660.91
-14663.79
-14653.56
-14655.68
-14648.48
-14658.34
-14674.14
-14669.74
-14660.98
-14672.04
-14683.44
-14692.49
-14693.08
-14688.96
-14710.26
-14714.64
-14706.96
-14713.42
-14715.63
-14736.71
-14730.49
-14744.48
-14758.05
-14761.85
-14782.55
-14799.47
-14804.16
-14805.95
-14828.55
-14845.31
-14861.88
-14854.66
-14839.1
-14865.29
-14889.26
-14887.29
-14881.81
-14867.62
-14853.23
-14838.45
-14803.76
-14789.21
-14778.73
-14758.92
-14740.08
-14740.39
-14736.48
-14734.07
-14722.56
-14689.37
-14692.25
-14690.06
-14696.09
-14684.11
-14674.37
-14676.69
-14665.14
-14658.32
-14648.8
-14647.19
-14656.37
-14654.07
-14658.32
-14671.95
-14671.33
-14667.15
-14666.19
-14654.03
-14663.01
-14670.99
-14655.61
-14648.3
-14663.08
-14684.13
-14668.2
-14659.79
-14661.02
-14657.25
-14652.35
-14656.31
-14673.38
-14668.42
-14659.7
